Reference Amplitude (V)	9000Hz	9050Hz	9100Hz	9150Hz	9200Hz	9250Hz	9300Hz	9350Hz	9400Hz	9450Hz	9500Hz	9550Hz	9600Hz	9650Hz	9700Hz	9750Hz	9800Hz	9850Hz	9900Hz	9950Hz	10000Hz	10050Hz	10100Hz	10150Hz	10200Hz	10250Hz	10300Hz	10350Hz	10400Hz	10450Hz	10500Hz
0.02	38.7695	38.3828	38.5814	38.4552	38.1274	37.7916	39.5073	39.2295	38.8804	38.1403	37.8875	38.2052	38.1201	36.3036	38.8139	38.8484	37.1678	38.286	37.1886	37.7885	38.6104	38.2435	39.0344	38.3694	37.7681	37.9352	37.4303	37.6486	37.2801	37.9065	38.3967
0.023	39.0312	38.0317	37.8194	39.7702	38.3256	38.9928	39.1451	38.4545	38.7662	38.4022	37.7787	38.7825	37.6781	38.2359	38.379	38.5997	38.7255	38.544	37.5475	38.5236	38.4346	38.4192	37.9782	37.4884	38.7338	37.92	37.8103	36.9885	38.963	38.7074	37.4025
0.026	38.345	38.666	38.5292	38.6279	37.9433	38.959	39.3057	39.2858	38.0262	37.8544	39.169	37.5876	37.5307	37.2641	37.4585	38.2337	36.7931	38.4156	37.7857	39.3771	38.1213	38.9089	38.3753	37.8792	38.8507	37.8915	37.3399	38.9985	37.9738	37.2826	37.9538
0.029	37.9823	38.721	39.2621	39.0705	38.5237	38.7804	40.0068	40.2251	39.0466	38.0213	37.9594	38.1528	38.5355	38.5122	36.667	38.9589	37.9249	38.5167	38.1958	39.1596	37.2986	38.473	38.206	38.8367	38.1721	37.4168	38.1624	38.3784	37.1918	38.2447	36.4595
0.032	39.6248	38.8782	39.0011	39.7828	39.1551	39.0633	38.4049	39.613	38.69	37.9051	38.3066	38.0211	38.1665	38.5475	37.525	37.736	37.9249	38.7797	38.4823	39.0138	37.8598	38.5294	38.4774	38.077	39.0827	37.9902	38.5819	38.6077	37.2688	37.1447	37.8602
0.035	38.2135	38.9262	39.5932	40.081	40.4624	39.4474	38.6269	39.6905	38.0342	38.2135	39.5531	37.6393	37.8509	37.0973	37.635	38.3919	38.3141	38.1109	37.5591	38.5223	37.8707	39.0375	38.7082	37.3678	39.7406	38.0449	37.9056	37.4876	37.3767	37.9599	37.4843
0.038	39.1046	39.1009	40.4048	40.1875	38.2949	39.6026	38.134	38.9452	38.4316	38.0246	39.0455	39.1192	37.9914	36.3557	38.4516	38.4176	37.4676	38.4633	37.3957	39.8298	37.7405	38.8747	37.1047	38.0633	38.3985	38.4811	36.816	38.0373	37.5285	37.6509	39.2006
0.041	38.9537	39.6501	40.1242	40.9733	38.4648	38.0002	39.2254	39.6288	39.6831	39.808	39.5837	38.2505	37.2982	38.5833	38.6051	38.9146	38.0564	39.5555	37.7394	38.0432	38.2477	39.1443	38.0252	38.0859	38.6675	38.4732	38.1053	37.7286	37.2968	38.1917	39.0982
0.044	38.9371	39.4415	39.7614	40.5105	39.5082	39.4893	39.1884	39.3815	38.4292	40.01	39.6249	38.5383	37.6729	36.828	37.5858	38.6011	38.6287	39.1721	37.3491	38.2875	38.8699	38.1287	39.2249	37.9758	39.0321	37.8934	36.8734	38.9296	37.5151	38.1828	38.0062
0.047	40.0928	38.3966	38.6397	39.8949	39.3116	38.2893	40.3506	40.2769	38.5596	39.8855	39.2392	38.6189	37.7377	38.0014	38.0607	38.0503	38.2827	38.5147	38.5791	38.5497	38.4535	38.8145	39.2481	38.2262	38.6542	37.5907	37.9804	37.26	37.3284	39.3889	37.767
0.05	39.4003	38.8817	39.5242	39.3296	39.0779	40.0932	40.3083	38.9211	39.2715	40.5021	39.256	39.1699	37.8147	38.2356	38.078	39.8057	37.6157	39.2286	37.8219	38.7753	38.932	38.2998	38.3167	38.6933	39.1088	37.5555	38.6925	38.651	37.5421	37.9226	38.204
0.053	39.766	38.7573	39.8772	40.3826	39.9137	39.4053	40.057	39.4224	38.8711	40.2056	40.0252	38.4938	38.399	38.2752	37.9912	39.1458	38.8984	39.1491	38.2897	39.0884	38.6368	37.0485	38.0797	38.4115	39.4811	37.7507	36.9621	38.6804	37.8684	38.4704	38.5689
0.056	39.6019	39.6603	40.4833	39.564	38.8436	39.051	39.3929	40.386	39.7689	39.376	38.8519	38.704	38.3432	38.0325	39.3958	38.4353	38.6191	39.3338	38.0796	38.6412	38.9669	38.237	37.8576	37.8756	38.2072	37.9736	37.512	37.8795	36.9476	38.7603	37.0948
0.059	39.7023	38.9464	41.887	39.8614	38.4263	39.5156	41.3778	39.9926	40.4141	39.1859	40.4551	39.5525	38.0414	38.1	37.8699	39.1242	38.7639	39.5808	37.7122	38.7024	39.8315	38.4547	37.6502	39.1436	39.8601	39.4072	37.2501	38.0762	37.8509	38.7909	37.3874
0.062	39.2914	40.9548	40.0892	39.9314	39.1858	39.8693	40.0373	40.048	39.9804	39.0275	39.7059	39.1247	37.3594	38.3458	38.6194	38.442	39.2084	40.43	38.7107	39.8842	38.7996	37.8678	38.6523	39.0115	39.0795	38.3123	38.6762	37.9539	37.2507	38.6683	37.8007
0.065	39.2291	39.022	39.9854	39.9719	39.4283	39.0106	41.128	41.9433	39.9628	40.6188	40.1794	38.9505	37.6052	38.7206	39.0912	38.5353	39.1213	38.9982	38.7165	39.1516	38.6371	38.6772	38.6762	39.2722	38.7298	39.6489	37.753	38.8204	37.2109	40.9471	38.9863
0.068	39.9094	40.6758	41.2962	39.4563	40.0926	41.1793	41.0569	40.8353	40.255	38.7049	40.679	38.4954	39.0485	39.4316	39.1188	37.7974	39.6947	39.6334	38.4968	39.4512	39.2953	39.8904	38.0554	39.6435	40.0831	39.4203	38.7377	37.5857	38.2551	39.2239	38.2733
0.071	39.6051	39.9803	41.3216	41.5583	38.6771	40.6924	39.7053	39.858	41.0662	39.272	40.5034	39.8971	37.1547	38.2752	38.5052	39.7534	39.0716	39.9514	37.5607	39.0044	41.6331	39.0756	38.9904	40.2347	40.1935	39.5457	38.3937	38.1536	37.9369	38.9716	38.4323
0.074	39.5844	41.4367	40.5928	40.932	40.4975	40.3641	39.6308	40.1512	39.9567	39.1601	41.1046	39.3528	38.6989	38.7646	38.8998	39.385	38.5931	39.3078	38.4009	200.486	53.9382	39.0921	38.1808	39.7462	39.8581	38.9337	37.8614	38.4107	37.39	38.8712	39.6616
0.077	39.8423	39.7799	41.2769	40.649	40.2289	39.2582	40.5394	40.596	40.8208	40.1691	40.2299	39.3858	38.8035	37.9804	39.5924	39.0835	39.383	39.7131	38.6831	197.644	67.9034	40.3744	39.1209	39.2792	41.2121	39.582	38.4844	38.0999	38.7639	39.3492	38.2916
0.08	40.1213	42.2054	40.9978	41.2025	38.8714	40.2033	41.4126	41.611	39.9233	40.2617	40.2223	39.0622	39.1403	38.6522	39.306	40.2721	38.5839	39.8634	39.6091	213.047	77.3521	43.0147	38.4696	39.6922	40.6948	38.9453	40.3012	38.4428	37.2766	39.4325	39.0949
0.083	40.1702	42.4177	40.5147	40.2936	41.4674	39.8025	41.7941	40.686	40.2698	39.4017	41.3353	40.9325	37.6149	38.7851	39.434	39.1292	38.763	39.3572	38.2295	220.28	88.0684	43.115	38.7811	40.7162	41.2256	38.542	38.1442	38.065	37.2249	40.6559	39.3761
0.086	40.4741	42.9156	41.5827	42.1147	40.9833	39.6593	41.6065	40.6823	40.5744	40.5765	42.1096	40.663	38.5346	38.7056	39.1069	39.5034	38.8196	40.8824	37.9976	230.375	92.5807	44.1305	38.3943	39.8018	40.0156	38.3809	38.2137	38.3769	37.3782	40.0906	38.8306
0.089	40.3923	41.5231	41.5352	42.1257	40.4966	40.1575	41.6287	40.8452	41.6992	40.1274	40.741	40.6882	38.5198	39.3292	39.3147	39.5395	38.4418	40.0505	580.512	239.879	96.1756	45.8006	38.9574	40.9265	40.7355	40.0352	39.4115	37.4653	37.7431	39.1431	38.8155
0.092	40.2138	41.8141	41.5711	42.0094	39.7682	40.4945	42.7519	41.7937	41.0582	41.4057	40.3208	40.9694	37.852	38.7582	39.6811	39.881	39.194	40.8306	575.101	249.603	96.5961	48.564	38.4625	40.4148	40.8795	39.3634	38.2103	38.2118	39.0344	40.0911	40.3123
0.095	41.8261	42.7237	42.7003	41.8095	42.1145	40.1398	42.2481	41.5973	40.897	40.6188	41.4853	40.5432	38.359	38.4986	38.7383	39.2299	40.175	40.0633	593.803	263.482	98.8801	48.4873	39.3923	40.3328	41.5776	39.9594	40.0406	39.0626	38.2782	41.0521	39.9971
0.098	41.9207	42.5755	42.8519	42.2495	41.7893	41.5473	43.8122	41.2976	41.5495	40.8357	41.1632	40.868	37.833	38.605	38.7861	40.0218	39.2484	40.3561	610.673	272.224	104.213	51.78	39.2113	39.5171	41.8541	38.7963	39.6303	38.2738	39.3653	39.8986	39.5496
0.101	42.3887	42.5644	43.1199	42.3999	42.1999	40.7203	43.3088	42.698	40.5356	40.9873	41.5061	40.7947	38.5004	37.8921	40.3934	40.1392	40.2812	40.837	620.744	290.013	109.957	53.3405	37.4987	41.2569	42.2169	40.517	38.8461	38.1098	38.7845	41.2539	40.0302
0.104	41.7583	42.8552	43.4738	42.5367	41.313	39.3744	42.9357	43.0844	42.1546	41.3872	40.9958	40.4885	39.205	38.1617	39.9325	39.9495	39.3084	40.0419	644.365	295.808	115.172	54.2254	38.4889	39.6001	40.6915	39.7775	39.2803	39.1156	38.2011	40.3825	40.9902
0.107	42.7363	42.5415	43.7939	42.6921	41.1205	40.546	42.3411	43.4989	41.0272	41.8173	42.5667	40.3334	39.3214	38.2961	40.6612	39.0055	39.3013	41.752	667.745	303.948	121.862	53.9419	38.1213	41.0016	41.4852	40.1503	39.3151	39.5719	38.9442	41.5269	40.327
0.11	42.6484	42.7793	43.9411	41.4222	42.3802	39.3717	43.7793	43.7203	41.4964	41.8091	42.7125	40.6424	38.8077	41.0236	40.2641	40.0402	39.4061	41.3409	674.526	313.847	126.072	53.1288	38.9378	40.16	41.8407	40.2914	39.2316	38.7387	38.8709	42.6838	41.3708
0.113	42.7722	43.5084	44.696	41.7635	41.3875	39.6769	43.9767	43.4899	43.0261	42.9506	42.3029	41.1202	39.6406	40.1396	40.0846	39.8247	39.4473	42.0373	678.599	322.78	128.808	54.071	38.6535	41.6508	40.9855	41.9276	38.9827	38.1821	39.6107	42.3216	41.2049
0.116	42.9126	44.7294	44.2934	42.0288	42.4745	40.8222	43.9646	43.3492	42.0528	43.5893	43.6244	41.597	39.8521	40.5709	40.9977	39.8761	38.7119	41.4249	685.628	325.276	132.265	54.093	39.5268	42.0757	42.0809	42.0311	39.6889	38.5922	39.1732	42.9696	41.3751
0.119	44.1673	43.8723	43.9152	42.7016	42.0814	40.2835	44.931	43.2993	42.5912	42.045	43.1665	41.438	40.4756	40.8924	39.4878	39.612	39.9573	41.8157	705.846	340.097	138.869	55.4046	38.9502	42.2636	41.9838	41.2471	40.1804	38.738	40.5696	44.0591	42.0696
0.122	44.6761	45.4805	44.7415	42.521	43.6769	40.2848	45.1164	43.6067	42.2061	42.0095	43.8776	42.3042	39.3633	41.0157	41.1989	40.4612	40.0879	40.9699	714.011	346.258	141.043	55.2988	39.4556	41.5112	42.8698	42.0211	40.1894	38.3055	40.1477	44.9838	41.5398
0.125	43.3815	45.5946	44.3272	43.6339	43.1867	41.2474	44.9934	44.1219	42.5567	43.2682	44.704	42.1775	40.4619	39.6056	40.3407	39.266	41.0928	41.7567	722.139	355.445	145.372	55.7796	37.756	41.496	42.9225	41.7234	40.5864	39.2128	39.771	44.4518	43.6525
0.128	44.1499	45.9426	44.5969	43.2669	42.3516	40.2876	46.5105	44.2389	42.5287	42.6859	43.495	41.3183	40.5899	40.4354	41.731	39.7051	41.4939	41.8893	743.219	354.167	155.801	55.1554	38.6061	42.0223	42.4453	41.1136	40.1814	38.5102	39.9953	46.0012	43.4054
0.131	43.8598	45.6889	45.1036	43.7914	43.3856	40.5248	46.6949	44.7865	43.19	43.5152	44.3323	42.3587	39.4425	40.612	40.6618	39.5441	41.5904	40.633	758.826	365.765	153.85	56.6705	38.6396	42.1743	42.8205	41.6591	40.223	38.5963	42.4369	47.9975	44.3404
0.134	43.5856	45.4806	46.1053	43.5503	43.4262	40.8947	46.3961	45.2439	43.2106	43.6309	42.5021	41.4907	40.1676	41.5003	40.5511	39.3278	41.3209	42.7918	758.755	377.823	158.973	56.9716	39.2607	41.3235	42.0383	42.5643	40.1231	39.1987	41.103	48.7886	45.0332
0.137	44.6944	46.6803	45.0141	44.4765	44.867	40.9746	47.0517	43.9407	43.796	45.6817	43.3958	42.0136	39.9285	40.8421	42.3414	40.7862	41.4625	41.9354	775.783	386.761	163.457	55.4931	39.2526	43.4906	43.4905	42.1032	39.2797	38.8568	42.5984	50.123	46.3054
0.14	45.6035	46.586	45.4182	44.4294	44.044	41.1393	48.3724	44.8314	43.3727	44.549	43.9011	43.6365	39.6056	41.009	41.208	40.3755	40.5999	42.4126	785.441	392.841	161.977	55.8929	38.1029	43.9353	44.5995	40.9063	39.9249	40.0472	42.7078	53.0721	45.9134
0.143	46.2748	46.9133	45.8018	43.6493	43.903	40.641	46.994	44.5936	44.406	43.8478	43.8451	42.9599	39.9678	39.9679	41.7793	39.8012	41.3446	1691.69	797.355	401.745	163.071	56.4881	40.2095	44.1618	44.1504	41.6554	41.2833	39.5032	42.3622	54.4833	47.942
0.146	46.3865	47.835	45.9752	44.8625	43.5989	40.4334	47.9344	45.991	44.5837	45.4744	44.0601	42.5051	40.8473	40.8984	41.401	40.3796	40.6408	1643.4	815.553	411.252	166.779	58.0321	38.0257	44.6696	44.1298	43.1331	40.6611	39.698	42.9703	58.4733	46.3843
0.149	46.112	47.9314	46.3152	45.7021	43.7955	41.1675	48.5982	45.5527	43.74	44.6225	44.6024	43.3932	39.9125	40.5613	41.707	39.9313	41.1889	1593.42	814.715	423.299	168.059	57.5251	39.3145	43.9233	43.3596	41.8986	40.4018	40.1906	44.6138	60.4691	49.0957
